#   1 NUMBER                 Running object number                                     
#   2 X_IMAGE                Object position along x                                    [pixel]
#   3 Y_IMAGE                Object position along y                                    [pixel]
#   4 XMIN_IMAGE             Minimum x-coordinate among detected pixels                 [pixel]
#   5 YMIN_IMAGE             Minimum y-coordinate among detected pixels                 [pixel]
#   6 XMAX_IMAGE             Maximum x-coordinate among detected pixels                 [pixel]
#   7 YMAX_IMAGE             Maximum y-coordinate among detected pixels                 [pixel]
#   8 FLUX_AUTO              Flux within a Kron-like elliptical aperture                [count]
#   9 FLUXERR_AUTO           RMS error for AUTO flux                                    [count]
#  10 MAG_AUTO               Kron-like elliptical aperture magnitude                    [mag]
#  11 MAGERR_AUTO            RMS error for AUTO magnitude                               [mag]
#  12 FLUX_MAX               Peak flux above background                                 [count]
#  13 FLUX_APER              Flux vector within fixed circular aperture(s)              [count]
#  22 FLUXERR_APER           RMS error vector for aperture flux(es)                     [count]
#  31 BACKGROUND             Background at centroid position                            [count]
#  32 THRESHOLD              Detection threshold above background                       [count]
#  33 CLASS_STAR             S/G classifier output                                     
#  34 FLAGS                  Extraction flags                                          
#  35 FLUX_RADIUS            Fraction-of-light radii                                    [pixel]
#  36 CXX_IMAGE              Cxx object ellipse parameter                               [pixel**(-2)]
#  37 CYY_IMAGE              Cyy object ellipse parameter                               [pixel**(-2)]
#  38 CXY_IMAGE              Cxy object ellipse parameter                               [pixel**(-2)]
#  39 A_IMAGE                Profile RMS along major axis                               [pixel]
#  40 B_IMAGE                Profile RMS along minor axis                               [pixel]
#  41 THETA_IMAGE            Position angle (CCW/x)                                     [deg]
#  42 ELLIPTICITY            1 - B_IMAGE/A_IMAGE                                       
#  43 FWHM_IMAGE             FWHM assuming a gaussian core                              [pixel]
#  44 KRON_RADIUS            Kron apertures in units of A or B                         
1	151.1217	151.3412	138	117	165	165	22312.1	330.9579	21.8659	0.0161	428.6805	3559.347	9617.927	12987.82	17499.87	19938.61	22309.66	22467	17462.61	12380.57	53.82003	100.1301	128.2073	181.8585	234.6715	341.0947	568.437	1126.243	1508.017	1.727129	6.53863	0.029	0	4.077	7.0154369e-02	6.3538715e-02	-3.7177779e-02	4.566	3.415	50.04	0.252	6.36	3.50
2	146.9030	 1.7569	142	1	156	7	1386.642	222.1991	24.8824	0.1740	51.80851	225.8794	707.0717	1120.841	1456.334	1396.161	1283.151	-0.5032616	-2382.606	-7476.39	42.01094	83.91708	111.6592	166.5483	221.0333	330.6817	561.811	1123.695	1506.627	1.789227	6.53863	0.012	2	3.495	1.2394470e-01	1.4392991e-01	2.1798074e-02	2.897	2.593	-23.74	0.105	15.35	3.50
3	56.1910	 3.1759	45	2	60	7	380.0563	99.37064	26.2877	0.2839	48.95211	219.3345	340.8914	334.8586	128.9311	-99.18548	-284.3178	-978.6253	-3528.22	-5428.246	41.82172	83.02201	110.4798	165.2767	220.1645	330.1173	561.9388	1123.713	1506.584	1.611411	6.53863	0.808	0	1.548	4.4815460e-01	1.1413841e+00	4.5302948e-01	1.621	0.910	-16.58	0.439	7.12	3.50
4	204.4624	 3.6387	203	1	206	6	438.1697	162.2076	26.1332	0.4020	35.46901	195.5032	321.7176	333.8581	475.4079	288.0231	-248.6379	-1031.544	-3621.382	-5295.783	42.05323	83.10706	110.5092	165.5225	220.3359	330.0862	561.8232	1123.735	1506.623	1.930054	6.53863	0.793	0	1.907	1.1285659e+00	5.3875118e-01	-1.7577255e-01	1.379	0.936	81.70	0.321	6.78	6.12
5	155.5254	 8.5037	154	8	157	9	131.0051	98.08411	27.4441	0.8131	30.20301	98.60079	169.7365	206.9803	325.9578	415.3117	492.4611	305.2044	-4123.054	-8763.292	41.99448	83.008	110.4416	165.3719	220.2459	330.2208	561.9259	1123.64	1506.641	1.796	6.53863	0.586	0	1.278	8.4366304e-01	4.0002513e+00	1.0543114e-02	1.089	0.500	-0.10	0.541	4.37	5.69
6	249.8417	12.3420	248	11	252	14	339.9627	90.28296	26.4087	0.2884	29.63509	95.21284	287.4456	246.7696	83.87402	-111.6678	-455.3694	-1624.219	-6186.619	-10504.85	41.89948	83.07948	110.3158	165.0863	220.1334	330.0344	561.8293	1123.735	1506.627	2.03974	6.53863	0.541	0	2.321	7.9506326e-01	1.0880722e+00	7.4602729e-01	1.360	0.863	-34.28	0.365	6.47	3.50
7	145.5079	12.9188	142	7	149	18	1059.898	163.3694	25.1741	0.1674	57.00927	293.5602	786.8054	939.453	1011.197	1119.084	1104.55	678.594	-3072.761	-8420.972	42.76123	84.35958	111.5722	166.1023	220.8397	330.5503	562.0975	1123.628	1506.659	1.765065	6.53863	0.171	3	2.566	3.2812598e-01	1.8962549e-01	1.6996123e-02	2.300	1.744	-86.50	0.241	9.57	3.50
8	170.6981	15.0262	166	10	176	23	2059.611	201.7523	24.4528	0.1064	73.44406	483.5209	1163.639	1588.812	1954.709	2018.293	2137.617	2627.587	-1948.65	-6061.837	43.10035	84.85933	112.3555	166.8824	221.5173	331.1844	562.6204	1123.725	1506.587	1.812046	6.53863	0.077	0	3.153	1.8509515e-01	1.6919851e-01	-4.3354653e-02	2.548	2.235	55.07	0.123	8.90	3.64
9	75.3192	16.4523	58	11	86	25	1298.271	187.9355	24.9539	0.1572	42.47361	250.4314	688.8787	961.1966	1249.583	1277.551	1170.577	-122.5162	-2423.856	-7546.513	42.3512	83.88094	111.4206	166.3002	221.0212	330.6043	561.8414	1123.649	1506.63	1.635522	6.53863	0.012	0	3.419	1.5233733e-01	2.3483066e-01	6.3968644e-02	2.659	2.017	-18.90	0.242	13.89	3.50
10	190.2319	19.6105	188	18	192	22	208.2784	88.11974	26.9407	0.4595	33.76847	143.4377	201.4915	137.0277	194.4499	139.8385	-263.8981	-691.5139	-1841.722	-5787.416	41.60045	82.74169	110.1499	165.2807	220.2548	330.1173	561.9388	1123.747	1506.614	1.8353	6.53863	0.714	2	1.227	8.0182987e-01	9.7007012e-01	4.1425085e-01	1.229	0.949	-33.95	0.227	6.45	3.50
11	287.5740	24.5189	281	21	293	31	1100.091	176.0066	25.1337	0.1738	58.08149	319.9213	685.8585	902.5458	926.3401	1054.375	475.9393	-890.341	-3329.978	-6630.112	42.70396	83.87494	111.2714	165.9141	220.8683	330.3368	561.8293	1123.707	1506.632	2.04186	6.53863	0.249	2	2.885	2.2182693e-01	2.6538441e-01	2.2589108e-01	2.789	1.670	-39.54	0.401	12.94	3.50
12	191.3589	24.5515	190	23	192	26	226.3429	74.48435	26.8504	0.3574	24.69359	111.9733	196.8708	176.7575	9.388762	106.3169	-379.4821	-1469.647	-2352.015	-6917.717	41.72087	82.98006	110.1479	165.0319	220.2139	330.0033	561.8293	1123.729	1506.623	1.820338	6.53863	0.606	3	1.802	2.3841403e+00	9.4451857e-01	3.5416719e-01	1.041	0.645	-83.09	0.381	4.87	3.90
13	264.5524	25.5700	258	20	275	37	3222.09	211.7871	23.9670	0.0714	100.4409	636.0783	1725.985	2347.693	2999.901	3130.478	2538.878	1511.763	-4631.283	-6104.96	43.76451	85.99648	113.4154	168.0249	222.5063	331.3243	562.2654	1123.732	1506.632	2.080295	6.53863	0.027	0	3.363	1.3399015e-01	1.8041891e-01	-7.7899404e-02	2.990	2.222	29.60	0.257	8.63	3.50
14	139.7535	27.4294	134	25	143	30	477.3791	118.3694	26.0401	0.2693	31.38777	136.3267	357.5139	401.6834	413.5344	374.165	475.2307	-739.2272	-4765.852	-8853.748	41.81804	83.26102	110.5187	165.4395	220.4321	330.2743	561.8232	1123.729	1506.625	1.728744	6.53863	0.807	2	2.633	3.3459038e-01	7.8259701e-01	3.9714569e-01	1.964	1.080	-20.78	0.450	8.71	3.50
15	159.7441	27.8963	157	26	162	30	314.059	93.03452	26.4948	0.3217	29.0922	137.9122	266.2059	273.016	125.7905	352.3318	294.8846	667.0149	-4189.702	-7582.199	41.90606	83.11921	110.5103	165.2943	220.2137	330.1315	562.0332	1123.652	1506.632	1.755874	6.53863	0.576	0	1.967	5.9964103e-01	9.9445641e-01	2.3661628e-01	1.328	0.987	-15.47	0.257	6.84	3.50
16	118.8385	29.3553	118	28	120	30	149.884	88.97549	27.2979	0.6447	32.50053	96.83614	120.9876	34.99738	-31.15767	-248.7007	-474.1898	-1314.466	-5279.423	-8022.119	41.82423	82.7862	109.9643	165.0431	220.149	329.9929	561.7988	1123.716	1506.614	1.696087	6.53863	0.663	0	1.093	2.3111598e+00	1.8997501e+00	-4.3419054e-01	0.744	0.645	66.73	0.133	1.51	5.57
17	65.6969	30.1032	64	29	67	31	262.3098	72.23488	26.6903	0.2991	30.62143	131.2716	237.8132	157.9374	127.5566	-79.25125	96.33921	-175.619	-3520.491	-6685.317	42.36683	83.35	110.3986	165.3374	219.9469	330.0727	561.9023	1123.619	1506.686	1.619608	6.53863	0.546	0	1.816	1.0075939e+00	1.6930449e+00	3.7197632e-01	1.020	0.758	-14.24	0.257	5.23	3.50
18	237.1893	33.1977	233	29	241	37	1035.72	195.2934	25.1992	0.2048	50.42522	256.6047	690.9592	897.9905	976.2097	1098.849	523.9348	-783.8258	-6165.099	-9157.138	41.72478	83.80349	111.2646	166.1701	221.0876	330.4542	561.8901	1123.719	1506.532	1.977287	6.53863	0.242	0	2.737	2.4838261e-01	3.1147298e-01	-2.2340907e-02	2.014	1.786	9.75	0.113	9.33	4.41
19	301.0000	33.1469	296	29	301	36	368.3688	115.2863	26.3216	0.3399	36.20298	144.5228	340.2899	369.0044	416.8631	309.5146	-154.0668	5.741352	-1922.656	-4849.497	41.76889	83.18543	110.5003	165.4635	220.3521	330.024	561.8918	1123.774	1506.58	2.010495	6.53863	0.766	0	2.152	4.9476233e-01	5.3396350e-01	3.3837688e-01	1.705	1.209	-41.70	0.291	8.59	3.50
20	173.0111	33.5009	168	26	177	36	1103.504	375.8776	25.1304	0.3699	38.89029	156.3387	387.9362	480.317	642.3642	648.153	820.5452	437.8362	-2401.04	-6163.821	41.81601	83.28084	110.7299	165.5459	220.5151	330.552	561.9287	1123.704	1506.63	1.775124	6.53863	0.205	3	6.406	2.4455035e-01	1.4184497e-01	1.6078708e-01	3.198	1.861	-61.28	0.418	14.63	6.63
21	 6.2998	34.0804	3	31	11	37	665.7029	143.4317	25.6791	0.2340	49.45361	258.0671	703.7094	695.4973	744.5746	603.7916	504.2693	566.8383	-46.00014	-2931.77	42.70284	84.19525	111.1457	165.7933	220.3729	330.2579	562.0826	1123.622	1506.652	1.570306	6.53863	0.479	0	2.310	2.5137112e-01	4.2162472e-01	6.0827345e-02	2.016	1.531	-9.83	0.241	10.52	3.50
22	166.0065	34.9995	161	31	171	39	766.3455	204.0613	25.5262	0.2892	38.48426	209.2669	664.1974	832.3801	841.3177	578.9609	653.7122	851.1602	-2166.789	-6097.204	41.45284	83.75024	111.0739	166.0348	220.6489	330.5299	562.1547	1123.701	1506.518	1.765736	6.53863	0.098	3	2.433	3.4023535e-01	2.9029799e-01	-2.2257571e-01	2.229	1.526	51.32	0.315	11.05	4.71
23	162.2065	36.3924	160	34	165	39	408.7241	110.033	26.2087	0.2924	40.03429	233.5609	416.3163	293.6751	62.58666	-50.78183	148.8196	514.2134	-3415.878	-7697.504	41.71471	83.2144	110.3247	165.2305	220.2111	330.2131	562.0548	1123.722	1506.537	1.760593	6.53863	0.573	3	1.574	5.8043408e-01	7.3646390e-01	-6.7167139e-01	1.786	0.998	38.46	0.441	7.20	3.50
24	34.0745	39.7793	18	30	52	58	13793.26	354.9904	22.3881	0.0279	216.1241	1746.387	5029.052	7004.681	9670.308	11398.28	13350.28	13668.36	11542.15	8822.043	47.73463	92.10178	120.121	174.4964	228.5855	336.7494	565.8936	1125.46	1507.601	1.572996	6.53863	0.028	2	4.680	3.8029864e-02	8.2595415e-02	2.7797753e-02	5.419	3.399	-15.98	0.373	7.96	3.50
25	148.0265	39.5379	144	35	151	44	786.1	158.3009	25.4986	0.2187	43.04217	167.4543	586.3661	799.9158	830.0655	834.1009	499.3103	-257.7355	-3534.515	-8421.427	42.02339	83.677	111.1176	165.8586	220.7331	330.3382	561.8232	1123.725	1506.612	1.742303	6.53863	0.148	0	2.673	3.0916172e-01	2.2892778e-01	-2.2150476e-02	2.097	1.794	82.28	0.144	11.62	3.50
26	59.2190	40.1016	55	38	63	42	485.3633	122.638	26.0221	0.2744	37.08793	166.6749	368.078	415.6309	419.0366	420.7253	325.3808	-393.9631	-3981.729	-7814.912	41.69344	83.28217	110.6016	165.383	220.2965	330.2711	561.7806	1123.732	1506.627	1.610039	6.53863	0.878	0	2.400	2.5156358e-01	7.7109939e-01	-8.9423070e-03	1.994	1.139	0.49	0.429	9.02	3.50
27	232.4751	44.2907	230	42	235	47	403.834	104.4439	26.2218	0.2809	40.81233	156.6148	438.7878	273.242	246.735	183.0863	-275.6456	-614.0552	-6093.893	-8735.479	42.22409	83.66918	110.5725	165.3335	220.1478	329.9929	561.8658	1123.619	1506.655	1.963165	6.53863	0.858	0	2.153	7.2868472e-01	6.2347972e-01	5.7531184e-01	1.614	1.016	-50.18	0.371	7.66	3.50
28	14.3120	47.6247	9	44	18	51	1302.146	294.3221	24.9507	0.2455	53.59586	191.9311	454.2871	677.6478	881.6147	1226.642	1195.879	1028.786	-1397.152	-1297.103	42.12035	83.37251	110.9649	165.8898	220.9673	330.6895	562.1404	1123.71	1506.623	1.570032	6.53863	0.351	3	4.598	2.5978279e-01	3.0582297e-01	7.5544655e-02	2.047	1.749	-29.32	0.146	11.34	6.73
29	208.0312	49.2834	207	48	209	50	203.4724	57.5943	26.9660	0.3074	25.7995	102.4255	158.5362	166.9044	188.6203	-15.16461	-486.2675	-999.5384	-4769.371	-10443	41.76469	82.82047	110.133	165.1714	220.1334	330.0966	561.8232	1123.698	1506.623	1.88143	6.53863	0.463	0	1.769	1.8394483e+00	2.1349273e+00	5.1506203e-02	0.738	0.684	-4.94	0.073	4.21	3.50
30	253.7450	52.4053	252	51	255	55	258.2654	87.23953	26.7071	0.3668	30.34672	76.66813	271.4643	255.267	90.95808	-24.0885	-720.9895	-1881.338	-6066.806	-10562.01	41.49725	83.08859	110.2976	165.0935	220.1179	330.0136	561.9084	1123.753	1506.598	2.042142	6.53863	0.585	0	2.189	1.1109697e+00	7.4275416e-01	-6.0240883e-01	1.320	0.884	60.72	0.330	6.45	3.50
31	89.5481	57.2885	86	54	93	61	797.5313	138.7389	25.4829	0.1889	45.03989	271.1969	632.952	747.4584	857.2625	776.0265	183.0704	-630.8119	-4542.811	-7834.872	42.43284	83.76974	111.1312	165.9478	220.6272	330.0957	561.8293	1123.659	1506.621	1.658181	6.53863	0.234	0	2.287	3.8073215e-01	3.2731330e-01	-4.9657095e-02	1.775	1.600	68.55	0.098	9.25	3.50
32	29.4028	62.0912	28	61	31	63	75.47209	97.9897	28.0428	1.4100	30.1957	121.5405	125.4386	109.1192	150.8888	343.7556	207.0076	-543.8452	-2433.036	-4051.532	41.67709	82.75385	110.1387	165.1333	220.3625	330.2839	561.7988	1123.71	1506.639	1.565678	6.53863	0.586	0	0.903	1.2861631e+00	2.5185728e+00	-1.7851089e+00	1.106	0.579	27.69	0.477	4.75	5.34
33	301.0000	62.9237	300	52	301	72	5324.907	259.3716	23.4215	0.0529	151.0509	1068.668	2791.756	3466.11	4373.162	4938.225	5377.283	5282.469	3331.924	1042.282	45.68251	88.23183	115.2848	169.4421	223.7035	332.6977	563.4245	1124.122	1506.772	2.00496	6.53863	0.034	0	3.406	1.3016450e-01	8.8415511e-02	-6.6594355e-02	3.780	2.594	61.04	0.314	11.74	3.50
34	38.2123	65.7870	36	63	40	68	347.8049	96.69917	26.3840	0.3019	33.658	182.7007	337.9802	299.6942	193.9882	-267.1281	-362.822	-13.3485	-2344.149	-4920.338	41.511	83.09853	110.3647	165.363	220.2266	330.1173	561.9206	1123.701	1506.58	1.579512	6.53863	0.693	0	1.707	8.1695080e-01	6.4526898e-01	4.5308109e-02	1.248	1.104	-82.61	0.115	7.01	3.50
35	211.0232	67.4803	210	65	213	69	303.3128	104.2834	26.5326	0.3734	37.28057	159.1207	221.7589	284.1472	381.6898	378.2624	114.2902	-364.3036	-4741.5	-10026.09	41.99033	82.94761	110.3413	165.3454	220.3576	330.175	561.8293	1123.701	1506.625	1.902795	6.53863	0.577	3	1.717	1.3444334e+00	7.2792774e-01	-1.0123450e-01	1.175	0.861	85.34	0.267	3.89	4.57
36	74.7739	67.9091	74	66	76	69	364.4466	130.5831	26.3332	0.3891	21.87738	78.73177	227.3625	284.3202	248.9101	220.6647	120.3805	-249.0521	-4817.034	-8722.958	41.50554	82.91763	110.3725	165.2736	220.2073	330.1677	561.8475	1123.719	1506.616	1.636518	6.53863	0.545	0	2.866	1.9710299e+00	1.2044934e+00	-1.2114595e+00	1.072	0.659	61.16	0.385	4.99	6.69
37	286.5197	72.4619	285	71	288	74	402.6803	142.5271	26.2249	0.3844	37.77654	141.4923	265.9083	341.3026	441.7878	278.904	351.2908	-1619.084	-4638.238	-8499.892	41.9203	83.15974	110.6442	165.4886	220.2358	330.1807	561.8353	1123.671	1506.646	2.047735	6.53863	0.592	0	2.511	9.0424860e-01	8.7711167e-01	-2.1640591e-02	1.070	1.049	70.71	0.019	6.32	5.73
38	266.7737	73.2226	265	72	269	75	229.0473	75.62959	26.8375	0.3586	34.13808	125.3122	185.0197	238.5727	-121.868	-134.6408	-745.2329	-1358.848	-6686.344	-9800.371	41.52777	82.66714	110.3654	165.0845	220.1645	330.0758	561.9023	1123.719	1506.623	2.087019	6.53863	0.629	0	1.646	1.0368413e+00	1.8363982e+00	-1.5163496e+00	1.314	0.660	31.10	0.497	5.55	3.50
39	187.3793	72.6303	185	71	189	74	333.5082	107.56	26.4295	0.3502	35.54041	177.7517	291.4993	356.3918	356.5304	258.4325	487.8649	876.1326	-3560.008	-8703.551	41.81956	82.92279	110.5123	165.4648	220.3756	330.2807	562.1621	1123.71	1506.616	1.829037	6.53863	0.679	0	1.675	7.3898828e-01	1.0332984e+00	4.6921831e-01	1.281	0.927	-28.95	0.276	6.51	4.28
40	137.5640	75.3772	133	69	143	80	2105.573	167.5238	24.4289	0.0864	86.64437	628.9741	1554.032	1762.015	2020.074	2009.154	1681.083	514.9774	-3539.961	-6627.883	43.65918	85.42268	112.6122	167.1525	221.6648	330.8926	562.0307	1123.722	1506.607	1.742671	6.53863	0.135	0	2.457	2.3754096e-01	2.4296205e-01	1.2543418e-01	2.374	1.817	-43.76	0.235	7.05	3.50
41	27.9648	74.6330	26	72	29	78	250.1023	85.24075	26.7420	0.3701	31.64265	71.80159	162.9359	194.2167	54.30614	148.7813	9.479752	-656.7813	-2622.608	-4563.799	41.56009	82.66399	110.2364	165.1601	220.2771	330.1117	561.884	1123.729	1506.621	1.564177	6.53863	0.651	0	2.388	2.9591343e+00	5.0835127e-01	1.7687932e+00	2.120	0.555	-72.09	0.738	6.47	3.50
42	62.8544	74.6073	61	74	64	76	257.2221	76.81303	26.7115	0.3243	36.17394	99.589	171.644	146.8602	242.393	104.2123	28.6417	-1055.843	-3992.554	-7598.91	41.58921	82.84685	110.1026	165.2049	220.1968	330.0385	561.9084	1123.756	1506.605	1.618564	6.53863	0.574	0	2.064	1.1944383e+00	2.6940222e+00	-1.5724170e+00	1.080	0.574	23.18	0.468	3.75	4.07
43	85.0940	76.6201	81	72	89	81	1361.169	162.6283	24.9025	0.1298	62.15921	418.8541	1100.23	1303.503	1386.37	1329.203	973.2415	411.6903	-4968.756	-8914.402	42.76966	84.69433	111.8704	166.355	220.9828	330.6083	561.9331	1123.729	1506.593	1.652988	6.53863	0.024	0	2.435	2.8127798e-01	2.3163882e-01	-2.4363413e-03	2.078	1.885	88.60	0.093	7.86	3.50
44	206.0599	79.7127	195	70	215	92	10746.26	295.3105	22.6592	0.0298	252.1061	1961.334	4972.821	6553.556	8635.198	9766.771	10737.69	10999.42	4994.029	1796.626	48.69051	92.07429	119.665	173.6034	227.2875	335.3723	565.0768	1124.396	1506.849	1.89493	6.53863	0.030	2	3.844	9.4136156e-02	6.6598170e-02	7.1763606e-03	3.888	3.251	-82.70	0.164	6.32	3.50
45	15.0886	 1.0000	10	1	18	3	614.1766	236.1874	25.7666	0.4176	30.54429	107.5863	222.9847	312.5429	496.5701	616.3175	426.1901	-818.5696	-2946.631	-5921.496	41.62125	82.95007	110.4151	165.4818	220.5065	330.3117	561.8536	1123.713	1506.623	1.57311	6.53863	0.640	2	4.708	3.4581208e-01	7.6630783e-01	2.1853223e-02	1.701	1.142	-1.49	0.329	8.34	7.29
46	261.5013	84.2038	254	82	264	90	494.9441	116.9408	26.0009	0.2566	40.2272	151.4871	277.287	424.1787	357.5157	274.0963	130.9474	-1440.088	-7390.783	-11423.14	41.79667	83.10027	110.6763	165.321	220.2943	330.2041	561.811	1123.71	1506.639	2.071491	6.53863	0.897	2	3.289	4.3459573e-01	7.1985668e-01	5.5348438e-01	1.939	1.061	-31.37	0.453	8.58	3.50
47	135.0699	86.0997	129	83	140	89	874.5735	170.8596	25.3828	0.2122	49.44616	239.1825	565.7823	750.5051	840.3293	866.5961	1016.937	-339.4819	-5357.912	-7679.44	42.46829	83.75859	111.2281	165.9101	220.5716	330.5165	561.8414	1123.622	1506.632	1.74179	6.53863	0.272	0	2.686	1.4672883e-01	4.4100276e-01	5.8871046e-02	2.637	1.501	-5.66	0.431	11.92	3.69
48	48.2728	86.0121	47	84	50	88	290.7637	82.25871	26.5785	0.3072	44.15622	150.398	226.8083	288.0638	292.4667	120.3485	-164.5317	-1143.448	-3203.829	-6131.224	41.79233	82.99897	110.4401	165.2968	220.1935	330.0344	561.884	1123.759	1506.625	1.595731	6.53863	0.523	0	1.714	1.4671361e+00	7.1814084e-01	-5.6247511e-03	1.180	0.826	89.78	0.300	3.00	3.50
49	24.4016	85.6708	23	83	27	88	275.9753	94.78796	26.6351	0.3730	31.1692	99.16277	283.0596	288.0586	151.3705	319.4984	-139.8538	-1111.151	-2872.782	-4279.615	41.75166	83.07069	110.4711	165.0923	220.3752	330.0551	561.884	1123.756	1506.593	1.565995	6.53863	0.588	0	2.314	7.6203692e-01	6.8062901e-01	-1.1955985e-01	1.241	1.122	62.13	0.096	7.05	3.50
50	181.4703	86.7358	177	83	184	92	476.2576	137.1107	26.0427	0.3127	34.60179	104.581	307.2889	465.1252	626.8547	575.3889	534.2325	155.5421	-3314.895	-9605.266	41.77329	83.20154	110.7379	165.6336	220.5376	330.2937	561.8511	1123.707	1506.652	1.829742	6.53863	0.709	0	3.075	5.2737331e-01	2.5129595e-01	-7.9445533e-02	2.017	1.370	81.97	0.321	9.96	3.50
51	285.2994	88.7969	274	80	295	111	7726.336	275.5735	23.0174	0.0387	169.084	1281.251	3630.524	4934.476	6476.023	7374.209	7351.277	6200.292	2487.924	-201.2892	46.08199	89.57344	117.3301	171.4183	225.602	333.8286	563.6413	1124.079	1506.641	2.05293	6.53863	0.028	0	3.759	1.0521694e-01	8.1324287e-02	4.3355469e-02	3.820	2.911	-59.43	0.238	9.43	3.50
52	34.2757	92.5919	32	90	37	95	466.3112	117.6291	26.0656	0.2739	45.53572	187.808	497.641	499.5164	223.5662	266.5306	308.892	-722.8081	-2955.863	-3768.116	41.94125	83.54105	110.7896	165.2066	220.2886	330.2525	561.8597	1123.747	1506.605	1.57376	6.53863	0.820	0	2.084	5.2123660e-01	4.9400848e-01	2.0780946e-01	1.576	1.278	-48.73	0.189	6.57	3.50
53	195.1477	95.4580	194	94	197	97	316.2079	134.3947	26.4874	0.4616	36.25166	107.6093	241.4258	261.6774	334.2273	416.9757	389.6756	-433.6921	-5204.511	-10224.74	41.86714	83.0695	110.3073	165.2975	220.4179	330.2415	561.8171	1123.741	1506.655	1.871981	6.53863	0.682	0	2.159	1.4306675e+00	1.2307136e+00	1.0080954e+00	1.106	0.736	-50.61	0.335	5.37	6.43
54	189.3208	95.6394	188	95	190	97	198.793	56.0761	26.9913	0.3063	25.38931	87.68449	157.3802	178.0487	142.0513	380.8197	543.7372	-887.0985	-4590.545	-9581.254	41.62373	82.69416	110.274	165.0622	220.3595	330.3296	561.7988	1123.686	1506.636	1.854906	6.53863	0.419	0	1.868	2.4425807e+00	2.5384457e+00	-2.4808187e+00	0.895	0.518	43.89	0.421	3.72	3.50
55	12.9059	99.1819	7	95	18	104	1559.725	181.694	24.7547	0.1265	52.47184	386.4166	969.86	1223.955	1546.217	1565.783	1179.455	567.8286	-1196.046	-2935.622	42.64307	84.47788	111.7824	166.5151	221.1766	330.7122	561.9612	1123.732	1506.605	1.58101	6.53863	0.022	0	2.940	1.7348433e-01	2.3975912e-01	-1.1983283e-02	2.405	2.040	5.12	0.152	10.39	3.50
56	37.8503	99.8634	36	98	39	101	216.2004	74.46165	26.9002	0.3740	31.99539	131.7428	248.4756	172.7877	-77.10841	-22.64432	-261.49	-1337.471	-3576.234	-5463.437	41.9631	83.00127	110.204	164.9809	220.1179	330.0447	561.8049	1123.735	1506.639	1.580283	6.53863	0.573	0	1.604	1.2507664e+00	1.2222136e+00	9.0282217e-02	0.917	0.883	-53.78	0.038	5.35	3.50
57	176.5492	102.4739	174	101	179	104	326.9699	98.41653	26.4510	0.3269	36.97583	137.5106	356.8014	296.8685	371.6102	354.7713	-16.77927	-188.2856	-2607.25	-8761.864	41.90446	83.34171	110.3915	165.3559	220.3708	330.0758	561.8293	1123.689	1506.639	1.833804	6.53863	0.843	0	1.965	4.4497031e-01	9.8546529e-01	2.0360464e-01	1.531	0.998	-10.32	0.348	7.39	3.50
58	147.7817	101.8523	145	100	151	116	408.9375	125.9749	26.2082	0.3345	30.02267	139.1506	367.7069	431.8552	395.7455	409.36	213.0627	-904.2278	-4249.482	-8755.756	41.66544	83.19924	110.5332	165.4009	220.4431	330.2248	561.8779	1123.756	1506.632	1.774803	6.53863	0.797	0	2.235	3.8447598e-01	7.5078088e-01	3.7074667e-01	1.805	1.099	-22.67	0.391	8.42	3.87
59	284.2039	103.6898	282	102	287	105	382.4171	133.8395	26.2810	0.3801	39.67979	138.6194	257.8933	329.4509	377.1628	296.1884	-169.2406	-1232.371	-5159.587	-10577.17	41.74533	82.97897	110.4716	165.3408	220.311	330.1794	561.7988	1123.716	1506.636	2.05588	6.53863	0.670	0	2.273	5.1555616e-01	1.0733607e+00	-7.9536714e-02	1.397	0.964	4.06	0.310	4.45	4.95
60	103.1584	106.1465	102	105	104	107	229.3926	60.56214	26.8359	0.2867	24.97555	102.6175	169.8777	135.612	20.24844	-167.7328	-327.3257	-1809.52	-6384.832	-9762.752	41.84727	82.8433	110.0545	165.0428	220.149	330.024	561.8232	1123.722	1506.63	1.685575	6.53863	0.557	0	1.894	1.7691426e+00	1.8172431e+00	8.6449575e-01	0.857	0.670	-43.41	0.218	4.50	3.50
61	298.5029	108.0872	297	106	300	110	262.4005	86.26181	26.6899	0.3570	36.68215	192.9713	272.3507	169.4432	148.424	-48.632	-722.2024	-2136.328	-4093.432	-8510.389	42.44801	83.50099	110.4469	165.2757	219.9314	330.0136	561.9449	1123.628	1506.684	2.028934	6.53863	0.641	0	1.382	1.0986270e+00	7.3651099e-01	-2.5248602e-01	1.198	0.937	72.56	0.218	6.32	3.50
62	253.8383	109.3336	241	104	259	120	2866.449	237.7715	24.0939	0.0901	87.8353	606.3439	1519.707	2048.331	2590.114	2944.262	2523.967	1670.185	-3585.685	-7036.924	43.65113	85.47581	113.1259	167.6179	222.3053	331.2962	562.3306	1123.732	1506.639	2.050163	6.53863	0.046	2	3.336	1.2284780e-01	1.2194870e-01	6.2245350e-02	3.310	2.552	-45.41	0.229	14.59	3.50
63	282.6509	111.1460	281	109	284	113	291.1544	87.30234	26.5770	0.3256	26.56753	170.2057	303.2023	243.6314	167.6112	157.2284	-472.4115	-769.535	-3993.855	-11104.9	42.11559	83.19336	110.2801	165.1916	220.2369	330.0136	561.8049	1123.741	1506.646	2.053507	6.53863	0.580	0	1.584	1.0766166e+00	7.1288854e-01	-1.3463219e-01	1.195	0.958	79.84	0.198	6.38	3.50
64	161.8284	113.3625	160	112	164	115	290.323	134.3626	26.5801	0.5026	29.39188	151.5711	274.3567	283.5459	372.622	479.3267	612.8965	-1162.451	-3702.159	-8277.419	41.87876	82.84706	110.4023	165.4603	220.5426	330.3644	561.8658	1123.747	1506.618	1.802783	6.53863	0.634	0	1.711	7.0131588e-01	1.0796317e+00	-2.0796777e-01	1.218	0.951	14.40	0.219	5.47	5.30
65	264.9531	114.7173	263	113	267	116	253.3938	131.7458	26.7278	0.5646	25.86682	109.0126	197.7931	243.5656	245.4971	-14.28804	63.53158	-301.4419	-5243.76	-11981.97	41.70904	82.85817	110.373	165.2494	220.0713	330.0872	561.8171	1123.677	1506.634	2.064614	6.53863	0.549	0	1.963	1.2239379e+00	2.0283828e+00	-2.2458308e+00	1.519	0.596	35.15	0.608	5.67	5.96
66	54.0355	114.9670	51	113	57	116	272.2956	86.28092	26.6497	0.3441	30.76782	87.2695	201.1301	227.1043	108.643	85.29354	-368.5131	-939.9438	-3212.624	-7375.542	41.70416	82.74097	110.2861	165.2149	220.2446	330.0758	561.884	1123.735	1506.625	1.593495	6.53863	0.593	0	2.505	7.3185039e-01	2.8144467e+00	2.1419163e+00	1.892	0.553	-22.90	0.708	6.10	3.50
67	246.2369	116.2391	242	114	249	119	509.4364	122.6707	25.9696	0.2615	38.86631	176.0264	466.2576	498.7195	563.586	425.1245	-22.68486	-1047.694	-4990.581	-9272.337	42.13862	83.39643	110.6958	165.6732	220.4861	330.0344	561.8597	1123.722	1506.607	2.011011	6.53863	0.854	3	2.427	3.7225276e-01	5.0882578e-01	-1.4655964e-01	1.714	1.360	23.51	0.207	8.16	3.50
68	93.4984	118.8712	91	117	95	121	347.3738	98.45108	26.3853	0.3078	38.81349	209.6359	381.1195	333.5254	231.5193	-128.7811	-472.6842	-1602.616	-6111.861	-7297.777	42.43286	83.39034	110.6015	165.2767	219.9158	329.9929	561.8414	1123.625	1506.636	1.650636	6.53863	0.817	0	1.522	8.0727822e-01	6.5784287e-01	-2.1428976e-03	1.233	1.113	89.59	0.097	7.00	3.50
69	117.4203	120.6884	116	120	119	122	214.3103	103.3167	26.9097	0.5235	24.71437	95.81377	168.5147	105.1705	106.1707	-204.2318	-541.9109	-2068.894	-4923.638	-8498.051	41.49173	82.84055	110.1327	165.0674	220.0091	330.0862	561.8414	1123.704	1506.614	1.6928	6.53863	0.492	0	1.884	1.6741571e+00	2.7498059e+00	2.0273125e+00	0.969	0.546	-31.03	0.437	4.31	6.20
70	27.2763	123.0010	25	119	30	124	747.9722	122.2971	25.5526	0.1776	55.84473	273.3821	635.6953	724.1855	457.4607	574.4999	349.4081	-377.1797	-1998.213	-4437.537	42.11784	83.65263	111.1579	165.3597	220.4904	330.2522	561.8658	1123.735	1506.582	1.529968	6.53863	0.951	3	2.308	5.3265756e-01	4.0415281e-01	-1.4812306e-01	1.643	1.329	65.47	0.191	8.52	3.50
71	216.9774	122.9586	216	121	218	125	305.3282	84.34085	26.5254	0.3000	31.48089	112.7651	226.9571	243.549	102.0126	-265.4602	-635.431	-2137.354	-6661.458	-10360.17	41.64198	82.91681	110.3419	165.1668	220.1645	330.0447	561.8597	1123.759	1506.618	1.921643	6.53863	0.588	0	2.223	1.6166331e+00	5.3150153e-01	6.4100482e-02	1.373	0.786	-88.31	0.427	6.20	3.50
72	284.6243	259.8999	251	212	301	301	141973.1	566.9752	19.8568	0.0043	2028.109	16990.78	47334.76	64707.08	90041.65	106773.3	126312	143502.1	145845.1	141139.2	85.79079	150.3046	183.4753	239.1904	289.7955	388.6831	602.8981	1145.158	1522.122	1.866645	6.53863	0.029	2	5.241	2.2904431e-02	2.5596030e-02	-6.7931786e-03	6.968	5.986	34.19	0.141	6.26	3.50
73	174.1862	131.4987	172	130	176	133	231.6335	86.20234	26.8253	0.4042	29.67257	133.6223	245.5527	309.0738	28.86198	-96.49588	-267.6426	-1550.429	-5123.668	-9608.831	41.72537	82.9954	110.5028	164.9686	219.978	330.1173	561.8049	1123.732	1506.634	1.808029	6.53863	0.658	0	1.502	6.9200659e-01	1.1853288e+00	3.6934745e-01	1.259	0.896	-18.41	0.289	5.24	3.50
74	55.6599	132.3959	50	126	63	141	2285.892	226.2991	24.3397	0.1075	70.08127	380.1369	1089.629	1355.959	1898.419	2210.562	1826.234	1099.438	-2412.999	-7333.653	42.69869	84.75421	112.0706	166.8877	221.8316	330.9657	562.2222	1123.753	1506.602	1.56027	6.53863	0.018	0	3.726	1.4212427e-01	1.5320894e-01	1.3788421e-01	3.569	2.148	-42.70	0.398	16.07	3.50
75	31.6422	131.7273	23	122	40	141	7241.309	250.2218	23.0878	0.0375	181.8884	1448.881	3719.876	4942.164	6196.724	7036.281	7275.765	6393.696	3407.788	1275.883	46.83063	89.70142	117.166	171.1265	225.3674	333.7499	563.7045	1124.206	1506.778	1.517819	6.53863	0.029	2	3.472	1.0993521e-01	1.1764247e-01	-6.6609658e-02	3.530	2.605	41.70	0.262	7.02	3.50
76	188.0804	132.3551	187	131	189	134	246.5632	140.5307	26.7575	0.6190	29.67357	136.9642	197.5754	256.0754	202.1789	-95.14526	-30.08777	-1537.755	-6980.742	-10726.54	41.82059	82.85773	110.4538	165.1643	220.0868	330.0344	561.811	1123.661	1506.641	1.839552	6.53863	0.531	0	1.549	1.7261875e+00	9.9901575e-01	-4.2876264e-01	1.031	0.749	74.74	0.274	3.71	6.83
77	255.7207	132.8514	254	128	258	136	397.6181	123.2146	26.2386	0.3365	31.46425	143.49	300.8264	392.7868	424.1353	338.6914	-28.97327	64.13032	-5528.071	-11898.46	41.92824	83.14747	110.5671	165.4502	220.3121	330.024	561.8665	1123.661	1506.636	1.993851	6.53863	0.718	0	2.459	7.4310780e-01	2.7620161e-01	-1.3281800e-01	1.936	1.153	82.06	0.404	8.94	3.56
78	193.1617	132.8009	192	132	194	134	140.6681	55.90308	27.3668	0.4316	39.59799	75.836	152.3429	158.8345	92.19508	147.4529	-184.8036	-1422.046	-6758.426	-10290.48	41.49391	82.60123	110.1829	165.1155	220.1363	330.0862	561.8962	1123.75	1506.609	1.849951	6.53863	0.620	0	1.667	2.4134669e+00	2.3844159e+00	1.4032741e+00	0.768	0.568	-45.59	0.260	1.83	3.50
79	 1.0000	133.9963	1	133	3	135	360.9886	93.11855	26.3436	0.2801	30.92297	91.3807	282.7299	333.9156	388.0218	104.6319	-419.2249	-713.352	-2082.594	-4596.435	41.5563	83.15233	110.5093	165.3724	220.2437	330.0344	561.8901	1123.762	1506.605	1.562537	6.53863	0.569	0	2.755	3.5765043e-01	1.5570211e+00	5.8765080e-02	1.674	0.801	-1.40	0.521	5.61	3.53
80	87.1379	136.1633	86	135	88	137	191.8516	90.95415	27.0299	0.5149	22.86314	111.204	165.9937	199.339	45.81911	-206.28	-945.3558	-1819.245	-4435.508	-8069.404	41.79971	82.83548	110.2751	165.0894	220.0868	330.0758	561.8232	1123.738	1506.634	1.607284	6.53863	0.519	0	1.545	1.7746528e+00	1.8383336e+00	6.4114118e-01	0.821	0.685	-42.16	0.165	4.45	5.17
81	283.0433	137.0484	281	135	286	139	484.304	129.4212	26.0245	0.2902	37.19192	159.5679	394.3683	417.6799	417.5778	520.6296	533.5021	-237.9306	-5733.211	-11969.24	42.07347	83.37579	110.5118	165.4229	220.5117	330.2726	561.7988	1123.735	1506.63	1.994537	6.53863	0.828	0	2.354	4.8668560e-01	6.2630117e-01	-1.1029309e-02	1.434	1.263	2.26	0.119	8.05	4.16
82	199.0573	136.8389	198	135	201	139	128.175	121.4495	27.4678	1.0290	42.4678	121.3317	239.8896	117.0765	197.0678	69.30136	-122.359	-1214.23	-7030.92	-9858.319	41.92173	82.9428	110.1197	165.2213	220.2014	330.0655	561.8414	1123.744	1506.632	1.858559	6.53863	0.541	0	1.122	1.3501823e+00	8.3695108e-01	-3.3773947e-01	1.128	0.845	73.33	0.251	4.97	5.39
83	162.1749	138.2798	159	135	167	142	735.8911	144.1078	25.5703	0.2127	45.57442	223.5833	566.5555	653.9686	657.5489	341.7842	260.3102	-510.6779	-5255.461	-9414.987	42.3263	83.63754	110.8985	165.6232	220.33	330.2383	561.8414	1123.707	1506.621	1.771332	6.53863	0.271	1	2.470	2.5854966e-01	4.2270783e-01	1.3293798e-01	2.063	1.497	-19.50	0.274	8.64	3.50
84	211.0691	138.7328	207	134	215	142	1184.696	162.4473	25.0533	0.1489	49.38931	336.831	897.2601	1150.907	1156.936	1113.076	777.9296	-482.5018	-6771.882	-8608.23	42.68986	84.37508	111.8265	166.125	220.8972	330.4477	561.8232	1123.707	1506.661	1.881768	6.53863	0.028	0	2.601	2.3823854e-01	2.7502152e-01	4.3951694e-02	2.094	1.872	-25.04	0.106	9.00	3.50
85	241.6200	139.7694	240	139	243	141	167.6881	61.79174	27.1760	0.4002	31.59977	106.3897	116.4888	137.4257	133.9487	34.43064	-402.1247	-1764.426	-5792.874	-11777.47	41.45176	82.57029	110.2126	165.2404	220.2061	330.0551	561.9084	1123.719	1506.616	1.946045	6.53863	0.460	0	1.537	1.2151307e+00	2.6518893e+00	1.2051666e+00	1.002	0.590	-20.00	0.411	4.56	3.50
86	67.6042	140.9276	66	139	69	144	308.6977	142.4171	26.5135	0.5010	47.70854	137.7189	241.6405	295.2698	418.7482	137.6131	113.4321	44.69958	-3129.384	-7738.611	41.82359	82.94632	110.5439	165.4034	220.2065	330.1331	561.879	1123.756	1506.605	1.562826	6.53863	0.560	0	1.890	1.2443279e+00	5.1108938e-01	5.9944119e-02	1.400	0.896	-87.66	0.360	6.69	5.39
87	249.6993	142.5775	249	141	251	144	171.8622	57.50275	27.1493	0.3634	27.07059	109.1224	166.4304	183.1438	125.9681	141.8378	-39.49198	-1251.998	-5942.784	-11129.36	41.46274	82.87764	110.2507	165.046	220.0699	330.1276	561.8293	1123.744	1506.609	1.955698	6.53863	0.499	0	1.545	2.7633309e+00	1.6744032e+00	-2.0313244e+00	0.968	0.545	59.10	0.438	4.30	3.50
88	299.8872	144.6383	299	143	301	146	355.9194	149.501	26.3589	0.4562	27.08373	106.6482	222.6213	278.4913	334.0843	241.112	-350.3601	-955.2006	-7139.068	-10553.24	41.69959	82.94934	110.3327	165.3594	220.2538	330.0862	561.8353	1123.701	1506.623	1.967294	6.53863	0.520	0	2.721	1.6837410e+00	9.7110403e-01	-4.1537109e-01	1.045	0.758	74.88	0.275	5.30	7.21
89	80.8701	145.5875	79	143	83	149	499.3542	160.1488	25.9913	0.3483	30.00227	91.75527	297.1578	428.0912	173.4126	321.7479	-147.2497	-1307.159	-4792.079	-7290.953	41.64003	83.18124	110.6512	165.1767	220.3459	330.0344	561.8779	1123.747	1506.614	1.576595	6.53863	0.710	0	3.071	9.3894196e-01	3.6353478e-01	4.6928778e-01	1.890	0.989	-70.40	0.477	8.18	5.05
90	241.6466	147.3922	240	145	244	149	330.797	91.2084	26.4384	0.2994	38.00113	127.4101	273.1268	310.0316	173.2145	11.83779	-142.6374	-1208.62	-5992.309	-11866.87	41.70055	82.96835	110.3804	165.2386	220.0958	330.0655	561.9023	1123.747	1506.627	1.930217	6.53863	0.516	0	2.088	8.3831888e-01	9.3695372e-01	-7.3860013e-01	1.393	0.891	41.20	0.361	4.87	3.50
91	270.3431	149.9807	266	143	275	159	1610.961	218.0964	24.7196	0.1470	61.49792	225.241	658.173	888.7717	1286.955	1485.394	1502.975	636.947	-4106.309	-10121.39	42.0084	83.8607	111.2508	166.2965	221.2861	330.8442	562.0425	1123.762	1506.614	1.969706	6.53863	0.187	0	4.172	2.6602960e-01	7.5878024e-02	2.4114361e-02	3.649	1.936	-86.39	0.469	15.94	3.50
92	119.4427	150.3144	118	149	121	152	190.3871	68.41681	27.0382	0.3903	29.7466	105.6943	193.3763	175.7199	22.96405	-16.16038	-475.42	-825.6589	-4104.865	-8480.581	41.61367	82.93181	110.2084	165.0663	220.0557	330.0655	561.811	1123.698	1506.634	1.647817	6.53863	0.533	0	1.674	1.7782696e+00	1.2899718e+00	9.5223284e-01	1.000	0.695	-58.57	0.305	4.42	3.50
93	 6.6828	150.0242	6	149	8	151	165.8338	99.01069	27.1881	0.6484	32.93729	117.0604	170.6827	136.5752	-86.80061	-500.3173	-758.2108	-1284.04	-2708.384	-4806.842	41.90475	82.84492	110.0871	164.9602	220.1024	330.0655	561.8232	1123.689	1506.627	1.521769	6.53863	0.512	0	1.395	2.1386147e+00	1.8143022e+00	1.3574179e-02	0.742	0.684	-88.80	0.079	4.22	5.91
94	53.3396	154.3320	52	153	54	155	184.1217	132.306	27.0745	0.7804	37.13985	98.65327	190.692	237.6643	241.8804	222.785	366.8268	543.2491	-4361.348	-8512.948	41.74963	82.96765	110.302	165.163	220.302	330.2403	561.9782	1123.707	1506.641	1.507249	6.53863	0.624	0	1.725	2.4782445e+00	2.4751449e+00	2.4020047e+00	0.885	0.521	-45.04	0.411	4.02	8.40
95	221.4574	157.0375	219	155	223	159	272.5182	91.10184	26.6488	0.3630	39.63255	108.199	278.56	259.9384	51.52713	0.9317437	-626.7972	-1854.611	-6740.122	-11256.94	41.78772	83.02047	110.3357	165.0744	220.1186	330.0655	561.8293	1123.744	1506.634	1.871208	6.53863	0.753	0	1.986	7.5899756e-01	8.3789295e-01	2.7406701e-01	1.235	1.031	-36.97	0.165	6.74	3.50
96	107.6317	158.1466	102	148	114	163	1360.199	198.176	24.9033	0.1582	51.73711	212.1409	662.3307	959.4401	1312.132	1195.514	997.4866	-115.9362	-3519.897	-5705.57	42.03784	83.90974	111.3259	166.3629	221.0058	330.5584	561.811	1123.747	1506.63	1.605535	6.53863	0.012	0	3.643	2.0624149e-01	1.5699275e-01	1.1554519e-01	2.901	2.023	-56.54	0.303	13.85	3.50
97	72.9254	159.7419	71	159	75	161	220.0663	69.72637	26.8809	0.3441	33.86222	111.3523	208.9073	151.2265	164.7183	168.7187	58.74272	-341.7636	-3791.32	-8489.981	41.8003	83.00423	110.2334	165.1265	220.2146	330.0848	561.8353	1123.671	1506.643	1.533139	6.53863	0.515	0	1.766	9.4933641e-01	2.2264352e+00	1.0780087e+00	1.153	0.642	-20.08	0.443	3.42	3.50
98	22.6486	166.3728	20	164	35	173	408.8077	106.0765	26.2085	0.2818	32.65515	148.7003	323.1089	424.7026	423.3961	351.6622	332.1613	-235.9547	-2735.227	-6130.094	41.86733	83.23322	110.5843	165.4288	220.3995	330.2435	561.8353	1123.759	1506.636	1.442622	6.53863	0.854	0	2.306	5.7535541e-01	6.9855279e-01	-7.8553140e-02	1.332	1.187	16.26	0.109	6.45	3.64
99	136.7607	169.9872	135	166	139	177	549.3055	139.6702	25.8878	0.2761	37.58443	145.1344	298.2937	308.6724	274.0307	401.6173	373.6071	-814.2	-3446.148	-7434.009	41.68937	82.93645	110.4093	165.3196	220.4683	330.2644	561.8901	1123.738	1506.623	1.662853	6.53863	0.908	3	2.923	1.1967994e+00	1.4193913e-01	1.6873570e-01	2.719	0.912	-85.46	0.665	9.43	3.80
100	248.6655	171.3219	247	170	250	173	208.2899	77.81352	26.9406	0.4057	36.35534	124.1593	226.1458	109.8188	1.210568	88.5941	-174.8118	-1583.657	-5355.45	-9431.975	41.85133	83.12118	110.2949	165.0443	220.1073	330.0344	561.8475	1123.677	1506.641	1.885831	6.53863	0.623	0	1.602	1.1148125e+00	1.1126690e+00	3.9688665e-01	1.045	0.873	-45.15	0.165	5.69	3.50
101	46.6088	172.9448	45	171	48	175	296.7825	93.91846	26.5562	0.3437	29.43907	119.6926	305.1927	301.3213	165.75	115.5204	-80.5788	-706.9301	-3889.504	-9268.249	41.6697	83.11508	110.3672	165.1068	220.1898	330.0551	561.884	1123.756	1506.607	1.453879	6.53863	0.626	0	2.030	9.5793605e-01	6.2061310e-01	3.2275699e-02	1.270	1.021	-87.27	0.196	6.80	3.50
102	139.4022	174.2146	137	171	142	178	659.1329	211.7889	25.6899	0.3489	32.8301	129.0236	378.1858	531.2501	320.4255	528.9514	343.1387	-864.6426	-2719.265	-7440.993	41.29493	83.17912	110.683	165.5111	220.6421	330.3526	561.9266	1123.732	1506.543	1.662324	6.53863	0.823	3	3.243	6.0756737e-01	4.0461713e-01	4.6055654e-01	1.982	1.149	-56.89	0.421	9.03	6.03
103	59.7869	174.5771	56	173	63	177	394.8296	113.0783	26.2463	0.3110	31.28415	156.2451	352.2188	352.8125	413.2185	248.435	-52.60731	-1082.873	-3605.997	-8124.433	41.56953	83.00355	110.5069	165.5632	220.368	330.1587	561.9206	1123.71	1506.605	1.475981	6.53863	0.532	0	1.970	3.4774700e-01	7.9932439e-01	-1.0114492e-01	1.710	1.115	6.31	0.348	8.26	3.50
104	258.6338	174.5202	258	173	259	176	218.105	72.13281	26.8906	0.3592	25.57706	81.77911	176.8302	152.1649	-3.685722	-267.5769	-985.1479	-1490.329	-5830.497	-9729.669	41.68221	82.85728	110.1728	164.9602	220.1179	330.0966	561.8414	1123.71	1506.643	1.889343	6.53863	0.519	0	2.180	4.3083997e+00	1.1435555e+00	4.2000553e-03	0.935	0.482	-89.96	0.485	2.45	4.75
105	121.4138	179.3455	120	178	123	180	183.498	63.20209	27.0782	0.3741	41.59001	135.3434	200.6251	111.3357	50.4057	115.4031	-230.4395	-1244.207	-2133.69	-7441.01	41.73225	82.90513	110.0489	165.094	220.1897	330.0966	561.884	1123.735	1506.612	1.604038	6.53863	0.652	0	1.155	9.8856103e-01	2.4342446e+00	-3.6486253e-01	1.018	0.638	7.08	0.373	2.65	3.50
106	187.5304	181.3991	185	180	190	183	251.3761	83.21286	26.7365	0.3595	33.73857	121.8614	221.6611	188.1875	117.9523	26.74984	-113.5702	-1589.664	-5849.457	-9403.562	41.84217	82.98863	110.3203	165.0793	220.1692	330.0655	561.8658	1123.756	1506.596	1.789497	6.53863	0.541	0	1.823	6.7685497e-01	2.0589890e+00	-1.1512811e+00	1.461	0.664	19.90	0.545	5.87	3.50
107	262.8207	183.1635	262	182	264	184	119.3771	55.83957	27.5450	0.5080	27.41227	117.6055	85.75437	21.43075	-175.4958	-401.02	-576.7146	-2041.59	-6049.745	-9795.496	41.66135	82.50823	110.0059	165.1053	220.18	330.0655	561.8779	1123.738	1506.616	1.872677	6.53863	0.515	0	1.123	2.4003360e+00	2.4442744e+00	1.4224213e+00	0.765	0.565	-44.12	0.261	3.88	3.50
108	139.5042	182.9714	139	182	140	184	154.9255	52.80035	27.2620	0.3701	22.12326	106.1348	135.666	-69.53281	-240.2312	-239.1007	-365.1944	-891.0491	-2078.652	-8046.665	41.61543	82.73311	109.9424	164.9809	219.9625	330.1173	561.8353	1123.735	1506.607	1.651717	6.53863	0.487	0	1.505	4.0003781e+00	1.5895652e+00	-2.5907934e-02	0.793	0.500	89.69	0.370	3.71	3.50
109	19.4828	184.0749	18	181	21	187	281.0822	170.7811	26.6152	0.6598	33.01209	150.1861	275.1903	281.3728	292.8636	523.1309	401.2838	-341.2721	-3645.375	-8177.13	42.11758	83.30162	110.5848	165.3386	220.3895	330.2473	561.8779	1123.646	1506.65	1.418085	6.53863	0.818	2	1.698	1.0483937e+00	3.7831351e-01	-2.9194862e-01	1.695	0.963	78.23	0.432	7.64	5.74
110	271.2400	184.6544	270	183	272	186	168.8055	64.50288	27.1688	0.4150	41.78869	135.4947	154.6568	85.52979	-19.51061	-352.0868	-955.8832	-2446.434	-5958.624	-9109.054	41.978	82.81267	110.0098	165.0431	220.1179	330.0344	561.8293	1123.729	1506.632	1.875081	6.53863	0.648	0	1.090	1.7444683e+00	1.2921439e+00	2.1856183e-01	0.888	0.752	-77.11	0.154	3.06	3.50
111	246.8167	186.4082	241	182	251	191	1236.653	179.025	25.0067	0.1572	59.0567	301.6258	751.366	938.7793	1299.922	1214.64	808.485	390.2256	-5589.669	-8391.596	42.06716	83.92354	111.3871	166.474	221.1285	330.5459	562.0546	1123.716	1506.578	1.847368	6.53863	0.258	0	2.902	1.9620508e-01	2.5183859e-01	1.6397332e-01	2.697	1.794	-35.63	0.335	11.15	3.50
112	90.4811	185.5164	89	184	96	187	185.8078	206.9193	27.0646	1.2094	33.66368	136.8254	170.6075	234.113	318.3791	167.4137	-184.537	-459.4185	-4512.153	-8850.543	42.06467	83.2566	110.5445	165.385	220.1203	330.0344	561.8901	1123.646	1506.63	1.515874	6.53863	0.840	3	1.291	8.7419015e-01	1.1480038e+00	-9.4694138e-01	1.389	0.815	36.94	0.413	6.35	8.30
113	13.1428	187.3032	10	184	18	194	940.7378	209.1682	25.3036	0.2415	48.09065	191.1079	452.0027	604.6431	826.2444	841.9161	709.8184	-565.5068	-4506.151	-8708.562	42.1171	83.53188	111.0401	166.0196	220.5995	330.3409	561.8293	1123.637	1506.634	1.435201	6.53863	0.285	2	3.659	3.2966104e-01	1.7729136e-01	-7.0346616e-02	2.428	1.722	77.61	0.291	12.26	4.41
114	103.9827	199.1824	95	187	117	216	13005.22	316.9311	22.4520	0.0265	217.2535	1815.442	5261.883	7260.111	9930.342	11600.54	13069	12775.33	8351.267	5538.111	47.61734	92.37415	120.5033	174.8815	228.7628	336.6305	565.7152	1124.963	1507.201	1.519375	6.53863	0.029	2	4.268	8.0647558e-02	6.4425319e-02	-4.6468228e-02	4.568	3.208	54.62	0.298	9.09	3.50
115	201.4594	189.9123	198	187	205	192	449.9066	134.5604	26.1045	0.3248	30.99368	100.8911	385.7843	489.6833	354.465	234.7958	226.708	-1082.028	-5999.962	-8310.697	41.84039	83.35863	110.8983	165.442	220.1558	330.097	561.8232	1123.649	1506.65	1.790137	6.53863	0.640	0	2.533	2.6615188e-01	5.6167257e-01	4.4512305e-02	1.944	1.332	-4.28	0.315	9.64	3.61
116	260.7542	194.1952	255	189	264	201	1093.789	193.1418	25.1400	0.1918	47.01418	159.1492	585.438	844.9508	1049.535	883.4921	721.4995	-585.0188	-5015.697	-7394.743	41.82721	83.51149	111.1851	166.0996	220.7549	330.3571	561.8719	1123.768	1506.6	1.852325	6.53863	0.018	0	3.420	1.7612022e-01	1.9277197e-01	-5.4906499e-02	2.534	2.166	36.56	0.145	14.05	3.50
117	184.6643	194.1765	184	192	186	197	251.7267	80.07155	26.7350	0.3454	26.25948	106.2811	227.4668	218.7117	106.7308	135.0076	29.62071	-697.7333	-5722.297	-7482.07	41.69813	82.91784	110.2424	165.1508	220.2046	330.1115	561.8597	1123.738	1506.625	1.749571	6.53863	0.539	0	2.017	2.1596837e+00	4.9914268e-01	5.1670259e-01	1.475	0.674	-81.36	0.543	5.95	3.50
118	68.8474	194.8477	67	194	70	196	242.3282	91.98096	26.7763	0.4122	18.27476	111.5264	206.7233	174.394	149.6737	76.81989	-267.5419	-2043.886	-5346.348	-7093.747	41.88273	82.99985	110.1754	165.1528	220.145	330.0033	561.8049	1123.732	1506.641	1.458681	6.53863	0.521	0	2.059	1.0967052e+00	1.9797205e+00	-4.3054321e-01	0.977	0.702	13.00	0.282	4.25	4.65
119	173.1044	196.4391	169	190	177	201	1225.063	167.6685	25.0169	0.1486	71.85712	314.4052	848.766	1038.57	1234.324	1208.657	1101.212	120.4369	-3333.573	-6541.077	42.36068	84.11674	111.5057	166.2643	220.9228	330.6211	561.8711	1123.707	1506.614	1.707569	6.53863	0.297	0	2.650	3.4883747e-01	2.1038274e-01	2.5255242e-01	2.716	1.536	-59.37	0.434	12.24	3.50
120	209.1729	196.4668	205	194	213	199	334.6032	112.2302	26.4260	0.3643	42.97188	103.4032	190.011	292.5139	92.87067	173.0343	-228.8159	-1080.67	-4711.504	-10689.56	41.60449	82.92505	110.3539	165.1369	220.2023	330.0966	561.8658	1123.729	1506.636	1.776647	6.53863	0.697	1	2.811	5.4884708e-01	1.3681585e+00	-1.3716569e+00	2.503	0.754	29.57	0.699	8.22	3.50
121	145.2618	196.9725	144	196	146	198	146.4729	57.42912	27.3229	0.4258	26.5437	114.2192	147.3762	146.7304	162.5869	142.284	-338.6034	-946.0099	-2256.376	-4868.84	41.81173	82.83932	110.1335	165.1865	220.1945	330.0862	561.8232	1123.732	1506.623	1.629289	6.53863	0.617	0	1.235	2.1812048e+00	1.8326176e+00	-1.9571915e-02	0.739	0.677	88.39	0.084	3.85	3.50
122	210.0000	209.0739	208	207	212	211	271.3245	89.20268	26.6536	0.3570	40.66359	148.1009	296.716	238.9389	256.6385	342.8827	-506.0291	-1044.115	-4395.271	-10245.71	41.78317	82.97451	110.4589	165.1986	220.3463	330.0655	561.8719	1123.741	1506.587	1.731276	6.53863	0.731	0	1.561	1.0447261e+00	8.4915161e-01	8.9257336e-01	1.428	0.844	-51.18	0.409	6.55	3.50
123	135.7620	209.7653	133	206	139	214	451.2856	137.0804	26.1012	0.3299	40.97126	123.145	285.87	458.1768	278.2277	203.7897	541.4033	-460.1005	-3328.736	-6518.091	41.84729	82.99394	110.6347	165.3652	220.3498	330.3594	561.884	1123.735	1506.602	1.564137	6.53863	0.665	0	2.546	4.8718482e-01	3.2597518e-01	-3.5383123e-01	2.171	1.290	57.25	0.406	10.02	3.50
124	179.6797	210.5520	175	205	184	215	1149.467	161.8838	25.0861	0.1529	65.17994	380.7979	822.9999	988.7823	1144.377	1131.105	695.7035	-106.7479	-3498.887	-9154.154	42.7813	84.14701	111.4926	166.133	220.9417	330.3855	561.8293	1123.665	1506.636	1.654292	6.53863	0.521	0	2.447	2.9128698e-01	2.4390781e-01	1.4656693e-01	2.291	1.703	-53.96	0.256	11.41	3.50
125	200.8058	214.6879	199	212	203	218	397.1563	119.6938	26.2399	0.3273	38.34713	82.85219	408.0635	400.5859	360.0025	123.3419	299.6539	-877.9926	-5000.4	-7843.811	41.43963	83.23897	110.5789	165.3235	220.1647	330.3203	561.7684	1123.719	1506.646	1.685901	6.53863	0.808	0	2.394	6.5983975e-01	3.2383579e-01	8.2529649e-02	1.771	1.226	-83.10	0.307	8.82	3.50
126	145.6812	216.2047	144	213	147	219	303.2354	90.21513	26.5329	0.3231	29.00589	111.7083	210.6415	272.0756	216.9063	110.6135	20.95197	-126.489	-3493.43	-6404.839	41.55552	82.84274	110.385	165.1999	220.1706	330.1382	561.8353	1123.713	1506.623	1.564392	6.53863	0.513	0	2.579	1.9453490e+00	4.6573851e-01	-9.9845767e-01	1.787	0.690	72.99	0.614	6.63	3.50
127	111.9803	216.6275	105	209	116	223	1110.697	270.5966	25.1233	0.2646	43.74309	185.1888	556.3241	804.8199	1211.255	1201.305	1270.559	410.0542	-2952.235	-6812.208	41.68542	83.41238	111.1865	166.3029	221.0875	330.7374	562.0361	1123.729	1506.618	1.496171	6.53863	0.012	3	3.540	1.9357193e-01	1.0832892e-01	-3.0986737e-02	3.077	2.257	80.01	0.267	15.81	4.41
128	234.8444	217.8795	233	215	237	220	303.3434	98.37651	26.5325	0.3522	29.11902	142.3579	334.8334	262.4133	59.76141	64.00497	215.6909	-115.455	-4440.28	-8166.252	41.92374	83.13337	110.4324	165.0206	220.1353	330.1537	561.8049	1123.668	1506.655	1.769633	6.53863	0.710	0	1.852	7.9632783e-01	7.0183915e-01	-5.5593652e-01	1.463	0.985	49.82	0.327	7.17	3.50
129	28.3726	222.9619	22	211	34	230	3242.104	216.9877	23.9602	0.0727	91.24155	597.0449	1781.133	2400.062	3105.908	3134.98	2909.02	1809.65	-2423.094	-7954.046	43.61561	85.90445	113.5526	168.2317	222.5558	331.5208	562.3962	1123.744	1506.618	1.377242	6.53863	0.024	0	3.318	1.5285514e-01	1.3967562e-01	-3.7473097e-02	2.813	2.453	54.69	0.128	8.84	3.50
130	142.2810	226.5984	137	221	147	235	2372.01	190.6875	24.2995	0.0873	90.98479	559.8904	1491.064	1910.225	2260.26	2471.434	2236.142	1896.15	-341.0732	-2789.008	43.23673	85.37989	112.8313	167.2078	221.9505	331.234	562.4097	1123.729	1506.596	1.519151	6.53863	0.045	0	2.939	2.0039928e-01	1.6767882e-01	-2.5505645e-04	2.442	2.234	89.78	0.085	9.91	3.50
131	301.0000	228.2791	298	226	301	231	432.1035	121.8659	26.1483	0.3063	35.20043	122.7199	335.3445	422.5713	478.4954	265.9123	-264.6564	-561.4558	-4956.22	-4842.033	41.8456	83.2988	110.6738	165.5669	220.257	330.0136	561.8171	1123.652	1506.65	1.882579	6.53863	0.819	0	2.837	3.4017897e-01	5.8596402e-01	-8.1542544e-02	1.731	1.299	9.18	0.250	8.82	3.50
132	294.2640	228.9520	292	227	296	232	608.0125	177.4778	25.7775	0.3170	36.05889	151.4279	282.8006	302.2135	558.3301	427.4145	404.5915	-834.3362	-4225.797	-6082.174	42.04122	83.07017	110.4615	165.544	220.4413	330.2593	561.7988	1123.716	1506.648	1.87772	6.53863	0.623	0	4.754	7.8087473e-01	6.8117064e-01	-4.7488654e-01	1.431	1.013	50.93	0.292	5.57	6.34
133	57.4441	229.2936	57	227	58	231	220.7937	67.2308	26.8773	0.3307	41.99782	122.2107	178.0101	79.54482	64.46162	62.15499	-657.6965	-1683.92	-6589.028	-8969.62	41.59763	82.85966	110.0939	165.1289	220.0873	330.0447	561.8232	1123.683	1506.625	1.407935	6.53863	0.689	0	1.645	4.1504970e+00	6.4532214e-01	-5.0772989e-01	1.263	0.490	85.88	0.612	4.67	3.50
134	195.5387	229.6848	193	228	199	231	321.4615	101.8236	26.4695	0.3440	29.93538	122.7905	230.0153	335.815	286.5118	300.8042	222.6182	-1232.04	-4193.096	-8273.152	41.92753	83.04661	110.6359	165.3529	220.2679	330.1364	561.8353	1123.659	1506.641	1.605417	6.53863	0.628	0	2.271	3.2530484e-01	1.4443673e+00	4.8816821e-01	1.909	0.818	-11.78	0.572	7.47	3.50
135	164.1150	235.2989	161	234	168	237	405.7766	113.0944	26.2166	0.3027	31.24581	118.9518	291.2195	348.5665	260.1561	268.3354	-67.20421	-268.9973	-3320.823	-8016.861	42.15638	83.45672	110.686	165.3884	220.1035	330.0136	561.9449	1123.622	1506.68	1.519247	6.53863	0.712	0	2.536	2.3550841e-01	1.1407773e+00	7.2656237e-02	2.067	0.936	-2.29	0.547	8.32	3.50
136	215.1687	237.7389	214	236	216	239	179.6764	64.53096	27.1011	0.3900	40.2224	161.2284	169.6328	183.6363	-94.90117	-180.3491	-568.7021	-1632.688	-3653.683	-8352.748	41.91718	82.92534	110.2514	165.0016	220.0868	330.0862	561.8597	1123.747	1506.627	1.647321	6.53863	0.677	0	1.113	2.0498090e+00	1.3077977e+00	-7.0590973e-01	0.926	0.676	68.21	0.270	4.70	3.50
137	79.9108	237.6963	78	236	82	239	245.6374	68.55127	26.7616	0.3031	39.09198	107.3377	195.2201	81.84872	-48.49654	-154.5536	-475.077	-1327.773	-4645.351	-7682.949	42.11044	83.3469	110.3147	165.1467	219.9314	330.0447	561.9571	1123.64	1506.684	1.419717	6.53863	0.475	0	1.910	1.6801662e+00	2.7289922e+00	-3.2392642e+00	1.411	0.506	36.03	0.641	5.02	3.50
138	148.7921	241.5891	145	238	150	243	771.0214	240.6013	25.5196	0.3389	37.47123	185.6894	404.346	523.3073	700.1053	647.4316	826.7222	122.2595	-2767.009	-7232.369	41.523	83.19042	110.7019	165.8723	220.6851	330.5447	561.9446	1123.716	1506.562	1.474945	6.53863	0.884	3	3.454	3.4351617e-01	5.7170779e-01	-3.9841557e-01	2.094	1.206	30.10	0.424	9.52	6.50
139	298.2881	243.0144	296	240	301	245	601.3069	114.1339	25.7896	0.2061	49.74587	257.3391	525.5751	564.257	700.3807	740.9855	1152.377	647.677	-2280.131	-4403.829	42.13556	83.51489	110.7944	165.6456	220.5852	330.6779	562.0092	1123.719	1506.609	1.876239	6.53863	0.957	3	1.970	5.7359201e-01	4.6461111e-01	-7.0955567e-02	1.484	1.308	73.47	0.118	5.18	3.50
140	60.9628	244.0184	56	242	66	246	442.9916	115.3941	26.1213	0.2829	35.68648	130.6404	208.1549	301.0222	520.9107	385.6018	-233.8366	-1038.561	-5162.392	-9371.003	41.63139	82.75511	110.3977	165.6096	220.4562	330.0966	561.8779	1123.741	1506.618	1.398626	6.53863	0.729	2	3.705	2.2005221e-01	1.5582958e+00	-5.7713664e-01	2.496	0.786	11.66	0.685	8.38	3.50
141	152.6969	246.2604	144	238	158	252	1676.077	229.9765	24.6766	0.1490	51.25031	256.1953	756.9327	995.1172	1381.266	1512.128	1326.369	277.572	-2369.302	-7081.045	42.37388	84.13809	111.5634	166.5759	221.1207	330.6828	561.9299	1123.622	1506.632	1.463654	6.53863	0.012	2	4.099	1.0502458e-01	1.7282911e-01	-9.4127893e-02	3.515	2.253	27.12	0.359	16.88	3.50
142	246.6794	247.4127	224	242	254	266	2567.508	243.9547	24.2135	0.1032	80.33566	515.3535	1327.266	1683.594	2292.94	2654.176	2728.493	2699.468	-2018.12	-3649.801	43.30232	85.09975	112.496	167.2403	222.0569	331.461	562.6173	1123.738	1506.621	1.766959	6.53863	0.024	0	3.421	1.1480348e-01	1.3284354e-01	-5.9585586e-02	3.285	2.540	36.58	0.227	14.15	3.63
143	91.9772	247.0656	90	243	96	249	341.1872	128.5735	26.4048	0.4092	32.09806	103.5516	316.4478	367.3515	456.4878	357.5798	-21.84707	-1165.791	-3353.48	-6909.153	41.68721	83.13765	110.4669	165.5034	220.373	330.0862	561.8597	1123.741	1506.625	1.414052	6.53863	0.832	0	2.301	4.0762618e-01	4.5032397e-01	-3.2280314e-01	1.938	1.300	41.23	0.329	9.50	3.50
144	184.4999	247.0273	184	246	185	248	224.3364	75.6192	26.8601	0.3661	21.40164	106.284	176.5739	131.2392	102.7174	-248.1018	-303.52	-868.8083	-5712.907	-8346.606	41.61603	82.89803	110.1722	165.0225	219.978	330.0862	561.8232	1123.747	1506.591	1.484789	6.53863	0.526	0	1.848	4.0003090e+00	1.5298353e+00	4.3449514e-02	0.809	0.500	-89.50	0.382	3.75	5.08
145	11.0426	247.9617	10	247	12	249	140.1429	57.41075	27.3709	0.4449	24.34878	108.3352	182.0949	41.58199	-1.547518	-199.8034	-912.1354	-1287.085	-5237.661	-10668.16	41.87003	82.86787	110.0054	165.1053	220.149	330.0033	561.8049	1123.71	1506.621	1.462134	6.53863	0.506	0	1.380	2.3338807e+00	2.4146383e+00	2.3636377e+00	0.916	0.530	-44.02	0.421	4.12	3.50
146	62.4646	255.4576	58	253	66	258	515.4136	129.4613	25.9569	0.2728	32.8402	121.0019	390.5441	492.4152	355.5847	543.9087	343.0312	-961.4188	-4699.338	-7899.878	41.83875	83.36815	110.6863	165.3191	220.5293	330.2386	561.8171	1123.689	1506.652	1.389051	6.53863	0.538	0	2.612	2.4810033e-01	7.3562205e-01	-3.2819095e-01	2.247	1.128	16.97	0.498	9.53	3.50
147	120.2205	255.1978	119	254	121	256	187.7861	82.0498	27.0531	0.4745	26.79789	111.7627	149.982	69.98682	114.8111	-16.13303	-314.1883	-1091.562	-3558.394	-7331.177	41.3908	82.67924	110.0173	165.2832	220.149	330.1173	561.9571	1123.722	1506.578	1.412464	6.53863	0.583	0	1.471	2.4498918e+00	2.4121144e+00	-1.4331741e+00	0.764	0.564	45.75	0.262	2.22	5.23
148	104.8429	254.8658	104	254	106	256	78.50776	78.63014	28.0000	1.0877	30.3186	116.7592	121.0297	72.3642	75.96507	-57.63447	-242.336	-674.34	-3142.288	-6465.325	41.82185	82.82759	110.0831	165.0784	220.1024	330.0655	561.8171	1123.732	1506.634	1.405062	6.53863	0.505	0	0.976	2.5482669e+00	2.2746642e+00	-1.3384707e+00	0.761	0.568	50.78	0.253	3.88	5.10
149	35.4533	255.2995	34	255	37	256	127.384	105.6334	27.4745	0.9006	29.75207	116.146	102.7066	115.3813	74.55394	-204.1874	-482.4915	-1372.989	-5625.038	-9523.477	41.8194	82.79072	110.3033	165.2426	219.9469	329.9825	561.8293	1123.659	1506.621	1.378997	6.53863	0.657	0	1.095	1.1271710e+00	4.7696137e+00	-1.1530925e-01	0.942	0.458	0.91	0.514	3.88	6.97
150	177.8347	258.3776	174	254	183	263	1080.946	171.56	25.1528	0.1724	44.42191	244.2665	716.0385	893.2672	1048.7	893.2042	669.4374	-835.6411	-3950.052	-7904.011	42.16501	83.77173	111.2883	166.2017	220.8241	330.3826	561.884	1123.719	1506.609	1.42799	6.53863	0.014	0	2.767	2.0539580e-01	2.5381917e-01	4.1304313e-02	2.249	1.956	-20.23	0.130	10.42	3.50
151	230.2434	260.5126	225	257	234	264	827.4251	166.2473	25.4430	0.2182	54.22914	207.7693	499.8367	677.6877	817.8794	621.2406	355.7047	-822.5253	-3294.398	-6393.62	42.10182	83.54543	110.9649	165.8876	220.5258	330.2243	561.811	1123.683	1506.621	1.654971	6.53863	0.616	2	3.081	1.9269274e-01	2.9669392e-01	-6.1627060e-02	2.330	1.810	15.32	0.223	12.31	3.50
152	112.2959	264.1328	111	262	116	271	421.6298	192.1164	26.1750	0.4948	35.53446	133.8507	304.3469	298.8495	482.7758	322.0159	382.4906	-7.126528	-3625.395	-5686.079	42.13414	83.23675	110.5802	165.5712	220.2063	330.2275	561.8414	1123.619	1506.636	1.387572	6.53863	0.658	0	2.841	1.1337247e+00	6.5791285e-01	3.0768050e-02	1.233	0.939	-88.15	0.239	4.03	7.64
153	33.7432	265.5764	31	263	36	269	439.1882	113.8969	26.1307	0.2816	36.90155	208.9265	431.5069	405.6579	332.611	148.6918	114.0966	-1492.134	-5022.555	-8417.858	41.94362	83.409	110.5247	165.358	220.2305	330.1645	561.8414	1123.768	1506.623	1.376577	6.53863	0.894	0	1.832	6.1742377e-01	4.2451948e-01	6.9950588e-02	1.546	1.266	-80.03	0.181	8.37	3.50
154	125.2780	265.5891	124	264	127	267	215.9775	73.30381	26.9013	0.3686	24.47475	113.4725	155.2266	170.5452	162.7394	351.5077	762.4268	-656.3234	-3774.548	-6756.98	41.72686	82.77251	110.2626	165.1038	220.3218	330.4709	561.8475	1123.753	1506.618	1.384377	6.53863	0.508	0	1.720	1.3012074e+00	1.9123334e+00	1.7546833e+00	1.215	0.628	-35.40	0.483	5.20	3.50
155	11.2123	267.5436	3	264	15	271	1139.661	154.3013	25.0954	0.1470	65.39532	391.8788	916.4544	1205.786	1124.144	1064.892	499.4125	-656.5973	-4590.54	-9021.699	42.7445	84.33191	111.7553	166.1333	220.9227	330.3383	561.8779	1123.762	1506.612	1.469866	6.53863	0.737	0	2.364	2.3502871e-01	3.4274402e-01	6.2593259e-02	2.101	1.687	-15.08	0.197	8.04	3.50
156	185.7286	273.4229	183	270	189	276	579.5613	130.2023	25.8296	0.2440	41.7676	160.1521	355.5125	490.798	548.6592	242.1379	-52.44601	-1526.307	-5257.033	-9032.464	41.9129	83.25701	110.6839	165.5756	220.2856	330.1173	561.8779	1123.75	1506.632	1.375881	6.53863	0.948	0	2.507	3.3890358e-01	4.5850781e-01	-1.3947596e-01	1.805	1.428	24.69	0.209	9.61	3.50
157	99.5060	274.3500	98	273	101	276	271.6801	152.2417	26.6522	0.6086	25.82323	120.7456	214.8127	197.9547	302.6693	335.1279	184.2917	216.3758	-3509.043	-7162.927	41.7559	82.93365	110.3661	165.4105	220.2318	330.1171	561.8934	1123.677	1506.636	1.364683	6.53863	0.564	0	1.883	1.2799977e+00	1.0695670e+00	-5.5442488e-01	1.067	0.824	55.39	0.227	5.59	7.03
158	66.1350	273.6530	59	270	74	278	1586.456	208.8649	24.7362	0.1430	64.29368	399.772	875.7327	1136.785	1430.767	1568.266	1490.306	-17.33643	-2021.805	-8075.837	42.93489	84.25139	111.6217	166.3995	221.3176	330.7861	561.7866	1123.722	1506.652	1.376395	6.53863	0.145	3	3.239	1.2019922e-01	3.1561550e-01	1.2922849e-01	3.150	1.728	-16.74	0.452	12.62	3.88
159	122.0205	275.8544	120	274	124	278	286.9548	86.30923	26.5928	0.3266	47.36041	134.665	266.6923	238.8263	245.3705	37.04326	52.21727	-560.1168	-4543.02	-7221.14	41.6475	83.03784	110.2418	165.2493	220.177	330.1333	561.8597	1123.756	1506.618	1.360382	6.53863	0.586	0	1.832	8.6954331e-01	1.0209305e+00	-6.8113279e-01	1.295	0.879	38.73	0.321	6.37	3.50
160	80.8737	279.3535	71	272	93	288	9193.087	262.4977	22.8286	0.0310	202.5056	1595.156	4482.761	5996.834	8258.779	8884.878	9285.195	8996.426	5953.164	977.3561	47.27605	91.14538	118.6856	173.1232	226.7153	334.7212	564.4493	1124.575	1506.749	1.366437	6.53863	0.029	2	3.641	8.1305504e-02	1.2765658e-01	-3.9125685e-02	3.672	2.724	20.08	0.258	8.33	3.50
161	219.6864	282.1611	217	279	222	285	328.2374	112.2207	26.4468	0.3713	43.28157	162.3301	338.7689	367.07	220.9395	49.78281	-470.1722	-1217.643	-4382.676	-7785.76	41.92155	83.18238	110.4664	165.2454	220.109	330.0655	561.8171	1123.701	1506.625	1.550925	6.53863	0.817	0	1.796	7.1784514e-01	5.1894385e-01	5.9432286e-01	1.811	1.036	-54.25	0.428	7.87	3.50
162	156.2122	282.7398	153	278	161	285	564.7231	135.9662	25.8577	0.2615	42.22004	120.8924	312.6121	425.7413	517.9724	530.9774	25.54572	-1325.271	-5547.896	-9544.827	41.6745	83.12996	110.6168	165.5653	220.5041	330.0887	561.8962	1123.75	1506.614	1.361103	6.53863	0.886	2	3.158	3.9185092e-01	3.3261317e-01	-3.5168584e-03	1.734	1.597	88.30	0.079	9.97	3.50
163	199.8904	285.9894	199	284	201	288	260.9988	82.19838	26.6957	0.3420	24.19227	107.7892	258.9502	249.2345	197.7568	-13.26285	-229.2613	-1202.687	-6354.597	-10467.52	41.5398	82.98109	110.3505	165.1599	220.0402	330.138	561.7806	1123.729	1506.623	1.441912	6.53863	0.566	0	2.326	1.9069536e+00	5.2212459e-01	-3.9597639e-01	1.422	0.719	82.02	0.495	6.03	3.50
164	40.6368	285.7164	39	284	42	287	269.8982	77.94537	26.6593	0.3136	32.26748	142.4382	232.3703	211.8583	178.9458	245.954	-169.0769	-1455.88	-3949.244	-7341.862	41.8424	82.92769	110.232	165.1616	220.304	330.0862	561.8293	1123.68	1506.636	1.406576	6.53863	0.588	0	1.711	1.1272587e+00	9.8103446e-01	1.7580435e-01	1.032	0.925	-64.88	0.103	5.82	3.50
165	217.2407	292.8846	216	291	218	294	235.6097	136.1915	26.8068	0.6277	30.77384	119.2421	176.4214	172.3655	9.092054	-64.42678	-225.7492	-1397.461	-5470.218	-8620.36	41.7499	82.81517	110.1723	165.0523	220.0868	330.0551	561.7988	1123.686	1506.632	1.515929	6.53863	0.587	0	1.781	2.0546021e+00	1.2811168e+00	1.3145505e+00	1.051	0.641	-60.24	0.390	4.88	7.18
166	229.0544	301.0000	220	295	234	301	2007.943	246.0172	24.4804	0.1331	60.2852	302.3459	921.9039	1437.702	1980.082	2066.683	1838.886	1924.437	-1705.576	-3955.496	42.71546	84.42374	112.0091	166.9897	221.6772	330.941	562.4059	1123.738	1506.659	1.511136	6.53863	0.012	3	3.751	1.6752729e-01	7.5730488e-02	-5.6548093e-02	3.843	2.387	74.18	0.379	18.17	3.50
167	 6.1190	298.6287	3	297	9	300	321.494	93.04784	26.4694	0.3143	29.8112	72.81495	306.9399	335.424	400.0894	230.8298	145.5775	-1812.875	-4753.55	-10527.56	41.64635	83.11858	110.3877	165.3846	220.2926	330.17	561.8353	1123.704	1506.634	1.567288	6.53863	0.686	0	2.739	6.8394041e-01	1.5732976e+00	-1.3541689e+00	1.772	0.718	28.35	0.595	6.74	3.50
168	227.3442	300.4351	225	295	232	301	642.8287	151.523	25.7171	0.2560	37.64073	180.9381	433.22	478.6577	669.9785	649.7005	-402.0903	-1318.851	-4107.612	-7211.395	41.91394	83.41243	110.6656	165.6976	220.6248	330.0862	561.8353	1123.738	1506.618	1.546364	6.53863	0.804	3	2.713	3.8286626e-01	2.5040090e-01	2.2796820e-01	2.326	1.493	-60.08	0.358	10.30	3.50
169	241.5471	300.2848	240	298	244	301	201.0255	148.7545	26.9792	0.8036	46.75552	165.9689	315.4057	236.0465	185.9606	167.6445	-49.93481	-1644.747	-3473.375	-5029.538	42.0175	83.17669	110.3926	165.2308	220.1827	329.9929	561.8293	1123.652	1506.632	1.610243	6.53863	0.725	0	1.101	8.7254506e-01	6.5821606e-01	-2.0021294e-01	1.271	1.047	68.48	0.176	6.89	5.54
170	180.7369	301.0000	178	300	184	301	524.4997	120.5822	25.9379	0.2497	47.58971	179.5172	437.1756	526.0068	504.9911	334.2263	78.3548	-1045.897	-6919.861	-10669.12	41.90829	83.42033	110.7369	165.5523	220.3708	330.1258	561.8658	1123.762	1506.616	1.369214	6.53863	0.934	0	2.169	4.3697697e-01	5.3928405e-01	-3.0331513e-01	1.746	1.242	35.68	0.289	8.81	3.50
171	300.2966	301.0000	299	301	301	301	255.9425	180.9672	26.7169	0.7679	32.40348	159.7181	251.5812	313.4657	340.3304	144.5241	-305.1974	-258.6321	624.834	-1457.787	41.74763	83.00751	110.4785	165.3037	220.103	330.1483	561.7927	1123.818	1506.641	1.77403	6.53863	0.700	0	1.475	9.7240281e-01	7.4272192e-01	-4.2600846e-01	1.275	0.954	59.17	0.252	5.55	7.03
172	82.8700	301.0000	81	301	84	301	358.8138	151.7747	26.3501	0.4594	39.01863	118.2564	227.1921	277.3387	278.6761	246.9655	71.22529	-85.94881	-2970.92	-6058.748	41.74596	82.95853	110.4239	165.3036	220.2893	330.0807	561.8171	1123.722	1506.634	1.33766	6.53863	0.511	1	2.563	1.8070006e+00	5.9273469e-01	-1.0999207e+00	1.621	0.704	68.91	0.566	5.73	6.11
173	219.9249	301.0000	216	294	232	301	2112.548	228.0539	24.4253	0.1172	99.30345	729.7443	1606.6	1842.237	2032.446	2079.134	2172.299	750.6776	-3159.988	-6404.39	44.19723	85.64507	112.7005	167.0215	221.6557	331.1709	562.0336	1123.701	1506.648	1.503187	6.53863	0.320	3	2.350	1.8820736e-01	1.7551622e-01	8.9826673e-02	2.707	2.098	-49.02	0.225	9.31	4.10
